#Typical Measured Spectrum of Semrock FF538-FDi01 Optical Filter	
#For wavelengths between 320 and 1120 nm, values near or below 3e-7 (Optical Density 6.5) are measurement noise limited.
#For wavelengths < 320 nm and > 1120 nm, values near or below 3e-6 (Optical Density 5.5) are measurement noise limited. 
#Data format:  Wavelength (nm) <tab> Transmission (0 to 1)
#Type: dichroic,
#Name: Semrock FF409-Di03
wavelength,transmission
320.0, 0.18754
320.2, 0.17215
320.4, 0.15808
320.6, 0.14396
320.8, 0.12862
321.0, 0.11496
321.2, 0.10062
321.4, 0.08705
321.6, 0.07387
321.8, 0.06489
322.0, 0.05737
322.2, 0.051
322.4, 0.04789
322.6, 0.04506
322.8, 0.04331
323.0, 0.0418
323.2, 0.04035
323.4, 0.03871
323.6, 0.03787
323.8, 0.03577
324.0, 0.03304
324.2, 0.03021
324.4, 0.02693
324.6, 0.0242
324.8, 0.02186
325.0, 0.01948
325.2, 0.01818
325.4, 0.01723
325.6, 0.01715
325.8, 0.01676
326.0, 0.01663
326.2, 0.0175
326.4, 0.01793
326.6, 0.01818
326.8, 0.01782
327.0, 0.0178
327.2, 0.01697
327.4, 0.01593
327.6, 0.01451
327.8, 0.01319
328.0, 0.01168
328.2, 0.01058
328.4, 0.00967
328.6, 0.0092
328.8, 0.00869
329.0, 0.00871
329.2, 0.00895
329.4, 0.0092
329.6, 0.00987
329.8, 0.01008
330.0, 0.01083
330.2, 0.01114
330.4, 0.01102
330.6, 0.01096
330.8, 0.01018
331.0, 0.00946
331.2, 0.00849
331.4, 0.00765
331.6, 0.00697
331.8, 0.00649
332.0, 0.00638
332.2, 0.00605
332.4, 0.00614
332.6, 0.00665
332.8, 0.00701
333.0, 0.00754
333.2, 0.00819
333.4, 0.00883
333.6, 0.00899
333.8, 0.00928
334.0, 0.00923
334.2, 0.00855
334.4, 0.00838
334.6, 0.00746
334.8, 0.00685
335.0, 0.00653
335.2, 0.00656
335.4, 0.00624
335.6, 0.00645
335.8, 0.00648
336.0, 0.00684
336.2, 0.00717
336.4, 0.00793
336.6, 0.00852
336.8, 0.00916
337.0, 0.00956
337.2, 0.00961
337.4, 0.0097
337.6, 0.00908
337.8, 0.00866
338.0, 0.00787
338.2, 0.00704
338.4, 0.00663
338.6, 0.00611
338.8, 0.00578
339.0, 0.00576
339.2, 0.00579
339.4, 0.00619
339.6, 0.00691
339.8, 0.00755
340.0, 0.00834
340.2, 0.009
340.4, 0.00967
340.6, 0.00977
340.8, 0.00988
341.0, 0.00946
341.2, 0.00885
341.4, 0.00801
341.6, 0.0072
341.8, 0.00632
342.0, 0.0059
342.2, 0.00555
342.4, 0.00529
342.6, 0.00545
342.8, 0.00561
343.0, 0.00605
343.2, 0.00665
343.4, 0.00727
343.6, 0.00786
343.8, 0.00857
344.0, 0.00895
344.2, 0.00906
344.4, 0.00879
344.6, 0.00836
344.8, 0.00765
345.0, 0.00683
345.2, 0.00595
345.4, 0.00546
345.6, 0.00489
345.8, 0.00456
346.0, 0.00444
346.2, 0.00444
346.4, 0.00481
346.6, 0.00511
346.8, 0.00541
347.0, 0.00604
347.2, 0.00656
347.4, 0.00714
347.6, 0.00728
347.8, 0.00751
348.0, 0.00728
348.2, 0.00687
348.4, 0.00642
348.6, 0.00571
348.8, 0.00498
349.0, 0.00446
349.2, 0.00401
349.4, 0.0036
349.6, 0.0034
349.8, 0.0033
350.0, 0.00346
350.2, 0.00371
350.4, 0.00389
350.6, 0.00428
350.8, 0.00468
351.0, 0.00515
351.2, 0.0055
351.4, 0.00582
351.6, 0.00599
351.8, 0.00593
352.0, 0.00567
352.2, 0.00518
352.4, 0.00472
352.6, 0.00422
352.8, 0.00367
353.0, 0.00321
353.2, 0.00294
353.4, 0.0028
353.6, 0.00257
353.8, 0.00257
354.0, 0.00273
354.2, 0.00293
354.4, 0.00306
354.6, 0.00341
354.8, 0.00372
355.0, 0.00414
355.2, 0.0046
355.4, 0.00486
355.6, 0.00507
355.8, 0.00507
356.0, 0.00488
356.2, 0.00458
356.4, 0.00424
356.6, 0.00366
356.8, 0.00324
357.0, 0.00286
357.2, 0.00255
357.4, 0.00231
357.6, 0.00225
357.8, 0.0022
358.0, 0.00224
358.2, 0.00234
358.4, 0.00257
358.6, 0.00279
358.8, 0.00313
359.0, 0.00357
359.2, 0.00395
359.4, 0.00441
359.6, 0.00468
359.8, 0.0049
360.0, 0.00488
360.2, 0.00489
360.4, 0.00447
360.6, 0.00399
360.8, 0.00352
361.0, 0.00304
361.2, 0.00268
361.4, 0.00237
361.6, 0.00227
361.8, 0.00207
362.0, 0.00202
362.2, 0.00212
362.4, 0.00224
362.6, 0.00231
362.8, 0.00252
363.0, 0.0029
363.2, 0.00347
363.4, 0.00395
363.6, 0.00457
363.8, 0.00483
364.0, 0.0053
364.2, 0.00552
364.4, 0.00542
364.6, 0.00522
364.8, 0.00465
365.0, 0.00427
365.2, 0.00386
365.4, 0.00323
365.6, 0.0028
365.8, 0.00251
366.0, 0.00232
366.2, 0.00217
366.4, 0.00204
366.6, 0.00208
366.8, 0.00225
367.0, 0.00234
367.2, 0.00257
367.4, 0.0031
367.6, 0.0037
367.8, 0.00452
368.0, 0.00539
368.2, 0.00603
368.4, 0.00644
368.6, 0.00668
368.8, 0.00658
369.0, 0.00612
369.2, 0.00554
369.4, 0.00474
369.6, 0.00401
369.8, 0.00328
370.0, 0.00285
370.2, 0.00245
370.4, 0.00216
370.6, 0.00206
370.8, 0.00212
371.0, 0.00208
371.2, 0.00233
371.4, 0.00271
371.6, 0.00346
371.8, 0.00433
372.0, 0.00537
372.2, 0.00646
372.4, 0.00722
372.6, 0.00782
372.8, 0.00797
373.0, 0.00779
373.2, 0.00726
373.4, 0.00608
373.6, 0.00514
373.8, 0.00386
374.0, 0.00312
374.2, 0.00247
374.4, 0.00213
374.6, 0.0019
374.8, 0.00191
375.0, 0.00213
375.2, 0.0025
375.4, 0.00323
375.6, 0.00444
375.8, 0.006
376.0, 0.00765
376.2, 0.00851
376.4, 0.00908
376.6, 0.00934
376.8, 0.00892
377.0, 0.00794
377.2, 0.00675
377.4, 0.00487
377.6, 0.00331
377.8, 0.00224
378.0, 0.00159
378.2, 0.00117
378.4, 0.00102
378.6, 0.00146
378.8, 0.00218
379.0, 0.00333
379.2, 0.00437
379.4, 0.00496
379.6, 0.00544
379.8, 0.00538
380.0, 0.00523
380.2, 0.00465
380.4, 0.0036
380.6, 0.00242
380.8, 0.00126
381.0, 5.8372e-04
381.2, 2.9793e-04
381.4, 1.9538e-04
381.6, 1.8811e-04
381.8, 1.2583e-04
382.0, 1.3054e-04
382.2, 1.6906e-04
382.4, 8.2189e-05
382.6, 8.8076e-05
382.8, 6.8536e-05
383.0, 1.1321e-04
383.2, 4.916e-05
383.4, 1.3063e-04
383.6, 6.0195e-05
383.8, 7.7908e-05
384.0, 1.4633e-04
384.2, 1.4496e-04
384.4, 8.6413e-05
384.6, 1.3621e-04
384.8, 8.9096e-05
385.0, 1.2847e-04
385.2, 1.083e-04
385.4, 1.3889e-04
385.6, 1.368e-04
385.8, 6.1265e-05
386.0, 1.6804e-04
386.2, 9.1892e-05
386.4, 1.5287e-04
386.6, 9.9916e-05
386.8, 6.1506e-05
387.0, 1.4335e-04
387.2, 9.9928e-05
387.4, 5.69e-05
387.6, 4.2684e-05
387.8, 9.6224e-05
388.0, 8.1089e-05
388.2, 5.499e-05
388.4, 5.4623e-05
388.6, 4.2447e-05
388.8, 3.9788e-05
389.0, 1.0766e-04
389.2, 4.1943e-05
389.4, 4.4553e-05
389.6, 4.556e-05
389.8, 4.0963e-05
390.0, 7.7633e-05
390.2, 3.8422e-05
390.4, 4.9081e-05
390.6, 4.388e-05
390.8, 8.8142e-05
391.0, 7.3831e-05
391.2, 4.3133e-05
391.4, 4.3559e-05
391.6, 6.8571e-05
391.8, 6.3819e-05
392.0, 5.2922e-05
392.2, 7.8085e-05
392.4, 3.6174e-05
392.6, 5.5673e-05
392.8, 5.448e-05
393.0, 1.1669e-04
393.2, 9.6962e-05
393.4, 4.3757e-05
393.6, 4.3829e-05
393.8, 6.141e-05
394.0, 1.1118e-04
394.2, 6.3934e-05
394.4, 7.874e-05
394.6, 4.6965e-05
394.8, 3.5331e-05
395.0, 9.9482e-05
395.2, 1.1975e-04
395.4, 1.022e-04
395.6, 9.1885e-05
395.8, 3.7267e-05
396.0, 8.082e-05
396.2, 3.3765e-05
396.4, 9.1384e-05
396.6, 3.8821e-05
396.8, 3.5017e-05
397.0, 0.00698
397.2, 0.01402
397.4, 0.01431
397.6, 0.01469
397.8, 0.01487
398.0, 0.0148
398.2, 0.01523
398.4, 0.01536
398.6, 0.01553
398.8, 0.01572
399.0, 0.01585
399.2, 0.01591
399.4, 0.01616
399.6, 0.01627
399.8, 0.0166
400.0, 0.01661
400.2, 0.01686
400.4, 0.01713
400.6, 0.0172
400.8, 0.01741
401.0, 0.01775
401.2, 0.01789
401.4, 0.01808
401.6, 0.01831
401.8, 0.01866
402.0, 0.01871
402.2, 0.01921
402.4, 0.01954
402.6, 0.02007
402.8, 0.02074
403.0, 0.02177
403.2, 0.02258
403.4, 0.02424
403.6, 0.02637
403.8, 0.03001
404.0, 0.03457
404.2, 0.04217
404.4, 0.05346
404.6, 0.07027
404.8, 0.0934
405.0, 0.1226
405.2, 0.157
405.4, 0.1938
405.6, 0.2318
405.8, 0.26844
406.0, 0.30335
406.2, 0.33364
406.4, 0.35886
406.6, 0.38142
406.8, 0.39441
407.0, 0.40347
407.2, 0.40834
407.4, 0.40975
407.6, 0.41181
407.8, 0.41583
408.0, 0.42118
408.2, 0.42814
408.4, 0.43571
408.6, 0.44349
408.8, 0.45053
409.0, 0.45685
409.2, 0.46228
409.4, 0.46598
409.6, 0.47062
409.8, 0.47782
410.0, 0.49381
410.2, 0.51727
410.4, 0.54997
410.6, 0.59235
410.8, 0.63822
411.0, 0.68564
411.2, 0.73549
411.4, 0.78137
411.6, 0.82071
411.8, 0.85313
412.0, 0.87676
412.2, 0.89241
412.4, 0.90028
412.6, 0.90865
412.8, 0.91414
413.0, 0.91944
413.2, 0.92711
413.4, 0.92896
413.6, 0.93009
413.8, 0.92951
414.0, 0.93133
414.2, 0.93009
414.4, 0.93045
414.6, 0.93083
414.8, 0.93087
415.0, 0.93031
415.2, 0.9296
415.4, 0.93083
415.6, 0.93031
415.8, 0.93239
416.0, 0.9336
416.2, 0.93339
416.4, 0.93536
416.6, 0.93756
416.8, 0.93868
417.0, 0.93947
417.2, 0.9414
417.4, 0.94359
417.6, 0.94355
417.8, 0.94491
418.0, 0.94566
418.2, 0.94614
418.4, 0.94749
418.6, 0.94788
418.8, 0.94679
419.0, 0.94807
419.2, 0.94727
419.4, 0.94729
419.6, 0.94922
419.8, 0.94793
420.0, 0.95108
420.2, 0.94883
420.4, 0.94793
420.6, 0.94754
420.8, 0.94638
421.0, 0.94319
421.2, 0.94361
421.4, 0.94093
421.6, 0.93961
421.8, 0.93824
422.0, 0.93889
422.2, 0.93459
422.4, 0.93481
422.6, 0.93598
422.8, 0.93733
423.0, 0.93823
423.2, 0.93823
423.4, 0.94005
423.6, 0.9425
423.8, 0.94556
424.0, 0.94807
424.2, 0.95091
424.4, 0.95321
424.6, 0.95485
424.8, 0.95721
425.0, 0.95698
425.2, 0.95844
425.4, 0.95984
425.6, 0.95857
425.8, 0.957
426.0, 0.95601
426.2, 0.95578
426.4, 0.95391
426.6, 0.95402
426.8, 0.95176
427.0, 0.95262
427.2, 0.95367
427.4, 0.9531
427.6, 0.95296
427.8, 0.95309
428.0, 0.95322
428.2, 0.95471
428.4, 0.95681
428.6, 0.95824
428.8, 0.95954
429.0, 0.96012
429.2, 0.96181
429.4, 0.96208
429.6, 0.96318
429.8, 0.9636
430.0, 0.96636
430.2, 0.96392
430.4, 0.96268
430.6, 0.96521
430.8, 0.96412
431.0, 0.96411
431.2, 0.96653
431.4, 0.96444
431.6, 0.96499
431.8, 0.96312
432.0, 0.96391
432.2, 0.96293
432.4, 0.96219
432.6, 0.96345
432.8, 0.961
433.0, 0.96358
433.2, 0.96423
433.4, 0.96349
433.6, 0.96392
433.8, 0.96438
434.0, 0.96617
434.2, 0.96586
434.4, 0.96857
434.6, 0.96997
434.8, 0.9708
435.0, 0.97012
435.2, 0.9704
435.4, 0.97131
435.6, 0.97159
435.8, 0.97054
436.0, 0.96984
436.2, 0.96969
436.4, 0.97041
436.6, 0.96859
436.8, 0.96933
437.0, 0.96986
437.2, 0.96765
437.4, 0.9704
437.6, 0.96911
437.8, 0.9689
438.0, 0.9687
438.2, 0.96821
438.4, 0.96874
438.6, 0.96863
438.8, 0.96858
439.0, 0.96985
439.2, 0.97079
439.4, 0.97312
439.6, 0.97416
439.8, 0.9729
440.0, 0.97343
440.2, 0.97477
440.4, 0.97294
440.6, 0.97305
440.8, 0.97339
441.0, 0.97428
441.2, 0.97546
441.4, 0.97481
441.6, 0.97421
441.8, 0.9733
442.0, 0.97178
442.2, 0.97335
442.4, 0.97124
442.6, 0.96932
442.8, 0.97034
443.0, 0.97004
443.2, 0.96992
443.4, 0.96792
443.6, 0.96848
443.8, 0.96946
444.0, 0.97002
444.2, 0.96922
444.4, 0.97104
444.6, 0.97049
444.8, 0.97304
445.0, 0.97323
445.2, 0.97032
445.4, 0.97227
445.6, 0.97345
445.8, 0.974
446.0, 0.97416
446.2, 0.97517
446.4, 0.97503
446.6, 0.9762
446.8, 0.97372
447.0, 0.97285
447.2, 0.97347
447.4, 0.97195
447.6, 0.97164
447.8, 0.97196
448.0, 0.97002
448.2, 0.96964
448.4, 0.96927
448.6, 0.97031
448.8, 0.97089
449.0, 0.96858
449.2, 0.96944
449.4, 0.9707
449.6, 0.97028
449.8, 0.97101
450.0, 0.97037
450.2, 0.97348
450.4, 0.97182
450.6, 0.97333
450.8, 0.97454
451.0, 0.97338
451.2, 0.97522
451.4, 0.97574
451.6, 0.97926
451.8, 0.97634
452.0, 0.97396
452.2, 0.97648
452.4, 0.97419
452.6, 0.97513
452.8, 0.9762
453.0, 0.9754
453.2, 0.97419
453.4, 0.97663
453.6, 0.97637
453.8, 0.97316
454.0, 0.97227
454.2, 0.97203
454.4, 0.97077
454.6, 0.96913
454.8, 0.97031
455.0, 0.96968
455.2, 0.96927
455.4, 0.96801
455.6, 0.96863
455.8, 0.97015
456.0, 0.96782
456.2, 0.96711
456.4, 0.9695
456.6, 0.97258
456.8, 0.97384
457.0, 0.9755
457.2, 0.97563
457.4, 0.9773
457.6, 0.97776
457.8, 0.98014
458.0, 0.979
458.2, 0.97899
458.4, 0.97849
458.6, 0.97744
458.8, 0.9785
459.0, 0.97734
459.2, 0.97557
459.4, 0.97497
459.6, 0.97481
459.8, 0.97543
460.0, 0.97607
460.2, 0.97575
460.4, 0.97474
460.6, 0.97242
460.8, 0.97246
461.0, 0.97205
461.2, 0.97102
461.4, 0.97039
461.6, 0.97077
461.8, 0.97092
462.0, 0.97262
462.2, 0.97237
462.4, 0.97047
462.6, 0.96997
462.8, 0.96976
463.0, 0.96855
463.2, 0.96996
463.4, 0.96824
463.6, 0.96891
463.8, 0.97079
464.0, 0.97026
464.2, 0.9698
464.4, 0.97006
464.6, 0.97299
464.8, 0.97466
465.0, 0.97539
465.2, 0.97492
465.4, 0.97652
465.6, 0.97514
465.8, 0.97411
466.0, 0.97338
466.2, 0.97358
466.4, 0.97284
466.6, 0.97237
466.8, 0.97276
467.0, 0.97215
467.2, 0.97104
467.4, 0.97167
467.6, 0.96948
467.8, 0.9684
468.0, 0.96854
468.2, 0.96982
468.4, 0.96826
468.6, 0.96771
468.8, 0.96897
469.0, 0.97096
469.2, 0.96989
469.4, 0.96975
469.6, 0.96895
469.8, 0.96979
470.0, 0.96875
470.2, 0.96851
470.4, 0.96838
470.6, 0.96837
470.8, 0.96842
471.0, 0.96847
471.2, 0.96904
471.4, 0.96792
471.6, 0.96587
471.8, 0.96616
472.0, 0.96687
472.2, 0.967
472.4, 0.96704
472.6, 0.96647
472.8, 0.96659
473.0, 0.96826
473.2, 0.96862
473.4, 0.96625
473.6, 0.96531
473.8, 0.96429
474.0, 0.96285
474.2, 0.96328
474.4, 0.96396
474.6, 0.96463
474.8, 0.96631
475.0, 0.96592
475.2, 0.96695
475.4, 0.96745
475.6, 0.96562
475.8, 0.96597
476.0, 0.96631
476.2, 0.96655
476.4, 0.96775
476.6, 0.96987
476.8, 0.96886
477.0, 0.96887
477.2, 0.96844
477.4, 0.96831
477.6, 0.9682
477.8, 0.97028
478.0, 0.97007
478.2, 0.97107
478.4, 0.96909
478.6, 0.9695
478.8, 0.96969
479.0, 0.96715
479.2, 0.96857
479.4, 0.96867
479.6, 0.9661
479.8, 0.9649
480.0, 0.96556
480.2, 0.96439
480.4, 0.96473
480.6, 0.96364
480.8, 0.96193
481.0, 0.9629
481.2, 0.9633
481.4, 0.95972
481.6, 0.95895
481.8, 0.95954
482.0, 0.96005
482.2, 0.95827
482.4, 0.95972
482.6, 0.95786
482.8, 0.95774
483.0, 0.95738
483.2, 0.95761
483.4, 0.95826
483.6, 0.95725
483.8, 0.95975
484.0, 0.95938
484.2, 0.9605
484.4, 0.96261
484.6, 0.96101
484.8, 0.96178
485.0, 0.96349
485.2, 0.96087
485.4, 0.96182
485.6, 0.96286
485.8, 0.96297
486.0, 0.96501
486.2, 0.96566
486.4, 0.96507
486.6, 0.96448
486.8, 0.96377
487.0, 0.96239
487.2, 0.96423
487.4, 0.96294
487.6, 0.96136
487.8, 0.96183
488.0, 0.96217
488.2, 0.9606
488.4, 0.96117
488.6, 0.95951
488.8, 0.95874
489.0, 0.95967
489.2, 0.95882
489.4, 0.95742
489.6, 0.95826
489.8, 0.95827
490.0, 0.9561
490.2, 0.9546
490.4, 0.9546
490.6, 0.95366
490.8, 0.95266
491.0, 0.95272
491.2, 0.95279
491.4, 0.9532
491.6, 0.95419
491.8, 0.9552
492.0, 0.95514
492.2, 0.9554
492.4, 0.95292
492.6, 0.95433
492.8, 0.95418
493.0, 0.95415
493.2, 0.95634
493.4, 0.95481
493.6, 0.95434
493.8, 0.9543
494.0, 0.95555
494.2, 0.9569
494.4, 0.9572
494.6, 0.95923
494.8, 0.95779
495.0, 0.95963
495.2, 0.95866
495.4, 0.95849
495.6, 0.95878
495.8, 0.95829
496.0, 0.95901
496.2, 0.96026
496.4, 0.95855
496.6, 0.95873
496.8, 0.96117
497.0, 0.96027
497.2, 0.95958
497.4, 0.9586
497.6, 0.95661
497.8, 0.95522
498.0, 0.95651
498.2, 0.957
498.4, 0.9582
498.6, 0.95902
498.8, 0.95726
499.0, 0.9557
499.2, 0.95426
499.4, 0.95584
499.6, 0.957
499.8, 0.95696
500.0, 0.95493
500.2, 0.95559
500.4, 0.95623
500.6, 0.95625
500.8, 0.95504
501.0, 0.95196
501.2, 0.9529
501.4, 0.95522
501.6, 0.95396
501.8, 0.9526
502.0, 0.95226
502.2, 0.9506
502.4, 0.95218
502.6, 0.95337
502.8, 0.95326
503.0, 0.95223
503.2, 0.95206
503.4, 0.95178
503.6, 0.95058
503.8, 0.95068
504.0, 0.95177
504.2, 0.95405
504.4, 0.95272
504.6, 0.95203
504.8, 0.95151
505.0, 0.95103
505.2, 0.95191
505.4, 0.95139
505.6, 0.95124
505.8, 0.9502
506.0, 0.9509
506.2, 0.95202
506.4, 0.95021
506.6, 0.95057
506.8, 0.95185
507.0, 0.95143
507.2, 0.95119
507.4, 0.95309
507.6, 0.95355
507.8, 0.95266
508.0, 0.95347
508.2, 0.95538
508.4, 0.9537
508.6, 0.9558
508.8, 0.95608
509.0, 0.95711
509.2, 0.9567
509.4, 0.95678
509.6, 0.95537
509.8, 0.95634
510.0, 0.95591
510.2, 0.95657
510.4, 0.95691
510.6, 0.95741
510.8, 0.95636
511.0, 0.9554
511.2, 0.95494
511.4, 0.9528
511.6, 0.95149
511.8, 0.95075
512.0, 0.95175
512.2, 0.95228
512.4, 0.94962
512.6, 0.94922
512.8, 0.94882
513.0, 0.94703
513.2, 0.94775
513.4, 0.94905
513.6, 0.94827
513.8, 0.94842
514.0, 0.94838
514.2, 0.94817
514.4, 0.94781
514.6, 0.94646
514.8, 0.94685
515.0, 0.94872
515.2, 0.9466
515.4, 0.94551
515.6, 0.94783
515.8, 0.94896
516.0, 0.94723
516.2, 0.94661
516.4, 0.94675
516.6, 0.9473
516.8, 0.94806
517.0, 0.94866
517.2, 0.94931
517.4, 0.9506
517.6, 0.95248
517.8, 0.95303
518.0, 0.95287
518.2, 0.95201
518.4, 0.95228
518.6, 0.95134
518.8, 0.95324
519.0, 0.95406
519.2, 0.95597
519.4, 0.95603
519.6, 0.9554
519.8, 0.95579
520.0, 0.95683
520.2, 0.95515
520.4, 0.95484
520.6, 0.95451
520.8, 0.95247
521.0, 0.9518
521.2, 0.95265
521.4, 0.95255
521.6, 0.95232
521.8, 0.95375
522.0, 0.95168
522.2, 0.95394
522.4, 0.95119
522.6, 0.94874
522.8, 0.94929
523.0, 0.94874
523.2, 0.94737
523.4, 0.94642
523.6, 0.94488
523.8, 0.94238
524.0, 0.94213
524.2, 0.94364
524.4, 0.94314
524.6, 0.9416
524.8, 0.94309
525.0, 0.94352
525.2, 0.94464
525.4, 0.94525
525.6, 0.94442
525.8, 0.94491
526.0, 0.94593
526.2, 0.94729
526.4, 0.94549
526.6, 0.94474
526.8, 0.94359
527.0, 0.94582
527.2, 0.94693
527.4, 0.94993
527.6, 0.95044
527.8, 0.94867
528.0, 0.94863
528.2, 0.9506
528.4, 0.95113
528.6, 0.95254
528.8, 0.95251
529.0, 0.95223
529.2, 0.95243
529.4, 0.95334
529.6, 0.9532
529.8, 0.95394
530.0, 0.95368
530.2, 0.95495
530.4, 0.95464
530.6, 0.95436
530.8, 0.95394
531.0, 0.95271
531.2, 0.95225
531.4, 0.95302
531.6, 0.95304
531.8, 0.9513
532.0, 0.95124
532.2, 0.95127
532.4, 0.95069
532.6, 0.94982
532.8, 0.94811
533.0, 0.9473
533.2, 0.9471
533.4, 0.94657
533.6, 0.9453
533.8, 0.9438
534.0, 0.94458
534.2, 0.94558
534.4, 0.94422
534.6, 0.94246
534.8, 0.94238
535.0, 0.94138
535.2, 0.94148
535.4, 0.94023
535.6, 0.94016
535.8, 0.94228
536.0, 0.94338
536.2, 0.94249
536.4, 0.94052
536.6, 0.94249
536.8, 0.94301
537.0, 0.94376
537.2, 0.94233
537.4, 0.94367
537.6, 0.94467
537.8, 0.94636
538.0, 0.9459
538.2, 0.9479
538.4, 0.94792
538.6, 0.94875
538.8, 0.9483
539.0, 0.9496
539.2, 0.95051
539.4, 0.9527
539.6, 0.95211
539.8, 0.95147
540.0, 0.9503
540.2, 0.94974
540.4, 0.94923
540.6, 0.95004
540.8, 0.94943
541.0, 0.95068
541.2, 0.95216
541.4, 0.95291
541.6, 0.95123
541.8, 0.95017
542.0, 0.95068
542.2, 0.9489
542.4, 0.95003
542.6, 0.94931
542.8, 0.9494
543.0, 0.95069
543.2, 0.95183
543.4, 0.95244
543.6, 0.951
543.8, 0.94927
544.0, 0.94849
544.2, 0.9486
544.4, 0.94981
544.6, 0.95031
544.8, 0.94686
545.0, 0.94603
545.2, 0.94481
545.4, 0.9458
545.6, 0.94658
545.8, 0.94552
546.0, 0.94661
546.2, 0.94776
546.4, 0.94615
546.6, 0.94573
546.8, 0.94472
547.0, 0.94548
547.2, 0.94511
547.4, 0.94625
547.6, 0.94566
547.8, 0.94559
548.0, 0.94718
548.2, 0.94755
548.4, 0.94692
548.6, 0.94671
548.8, 0.94568
549.0, 0.94652
549.2, 0.9469
549.4, 0.94787
549.6, 0.94641
549.8, 0.94638
550.0, 0.94646
550.2, 0.94902
550.4, 0.94852
550.6, 0.94845
550.8, 0.94719
551.0, 0.94854
551.2, 0.94706
551.4, 0.94767
551.6, 0.94791
551.8, 0.94791
552.0, 0.94871
552.2, 0.94889
552.4, 0.94868
552.6, 0.94674
552.8, 0.94532
553.0, 0.94709
553.2, 0.94626
553.4, 0.94594
553.6, 0.94793
553.8, 0.94688
554.0, 0.94659
554.2, 0.9464
554.4, 0.94755
554.6, 0.94717
554.8, 0.94876
555.0, 0.94803
555.2, 0.94659
555.4, 0.94717
555.6, 0.94871
555.8, 0.94918
556.0, 0.94986
556.2, 0.95128
556.4, 0.9513
556.6, 0.95058
556.8, 0.95051
557.0, 0.95048
557.2, 0.94949
557.4, 0.95133
557.6, 0.95091
557.8, 0.95063
558.0, 0.95266
558.2, 0.95334
558.4, 0.9529
558.6, 0.95147
558.8, 0.95214
559.0, 0.95146
559.2, 0.95176
559.4, 0.95068
559.6, 0.95339
559.8, 0.95316
560.0, 0.95177
560.2, 0.94972
560.4, 0.9516
560.6, 0.94953
560.8, 0.94994
561.0, 0.95085
561.2, 0.95121
561.4, 0.9539
561.6, 0.95234
561.8, 0.95043
562.0, 0.94843
562.2, 0.95009
562.4, 0.95007
562.6, 0.94876
562.8, 0.94898
563.0, 0.95063
563.2, 0.95114
563.4, 0.94924
563.6, 0.94952
563.8, 0.94946
564.0, 0.9498
564.2, 0.95062
564.4, 0.95096
564.6, 0.94878
564.8, 0.94953
565.0, 0.94987
565.2, 0.9497
565.4, 0.94812
565.6, 0.94694
565.8, 0.94737
566.0, 0.94674
566.2, 0.94905
566.4, 0.95033
566.6, 0.95017
566.8, 0.95074
567.0, 0.95098
567.2, 0.9519
567.4, 0.95447
567.6, 0.9533
567.8, 0.95163
568.0, 0.9533
568.2, 0.95404
568.4, 0.95267
568.6, 0.95388
568.8, 0.95468
569.0, 0.95454
569.2, 0.95367
569.4, 0.95296
569.6, 0.95182
569.8, 0.9533
570.0, 0.95353
570.2, 0.95262
570.4, 0.95327
570.6, 0.95388
570.8, 0.95538
571.0, 0.95532
571.2, 0.95337
571.4, 0.95426
571.6, 0.95313
571.8, 0.95498
572.0, 0.95305
572.2, 0.95339
572.4, 0.95412
572.6, 0.95395
572.8, 0.9525
573.0, 0.95034
573.2, 0.9496
573.4, 0.95
573.6, 0.95136
573.8, 0.95088
574.0, 0.95185
574.2, 0.95089
574.4, 0.95078
574.6, 0.9494
574.8, 0.94789
575.0, 0.94727
575.2, 0.94685
575.4, 0.94827
575.6, 0.94733
575.8, 0.94406
576.0, 0.94549
576.2, 0.94507
576.4, 0.94471
576.6, 0.9453
576.8, 0.94479
577.0, 0.94289
577.2, 0.9433
577.4, 0.94416
577.6, 0.94502
577.8, 0.94469
578.0, 0.94578
578.2, 0.94642
578.4, 0.94629
578.6, 0.94562
578.8, 0.94706
579.0, 0.94632
579.2, 0.94614
579.4, 0.94832
579.6, 0.94972
