#Typical Measured Spectrum of Semrock FF573-Di01 Optical Filter	
#For wavelengths between 320 and 1120 nm, values near or below 3e-7 (Optical Density 6.5) are measurement noise limited.
#For wavelengths < 320 nm and > 1120 nm, values near or below 3e-6 (Optical Density 5.5) are measurement noise limited. 
#Data format:  Wavelength (nm) <tab> Transmission (0 to 1)
#Type: dichroic,
#Name: Semrock FF573-Di01
wavelength,transmission
340.0, 0.1727
340.2, 0.14468
340.4, 0.11075
340.6, 0.07931
340.8, 0.06038
341.0, 0.05226
341.2, 0.05217
341.4, 0.06097
341.6, 0.08212
341.8, 0.11638
342.0, 0.15205
342.2, 0.17597
342.4, 0.18059
342.6, 0.16969
342.8, 0.14245
343.0, 0.10199
343.2, 0.06207
343.4, 0.03484
343.6, 0.02102
343.8, 0.01389
344.0, 0.01018
344.2, 0.00798
344.4, 0.00648
344.6, 0.00563
344.8, 0.00509
345.0, 0.00471
345.2, 0.00439
345.4, 0.00416
345.6, 0.00411
345.8, 0.00418
346.0, 0.00427
346.2, 0.00414
346.4, 0.00407
346.6, 0.00395
346.8, 0.00364
347.0, 0.00343
347.2, 0.00288
347.4, 0.00255
347.6, 0.00232
347.8, 0.00197
348.0, 0.00171
348.2, 0.00159
348.4, 0.00135
348.6, 0.0012
348.8, 0.00109
349.0, 0.00101
349.2, 9.4795e-04
349.4, 9.6653e-04
349.6, 9.564e-04
349.8, 9.195e-04
350.0, 9.4974e-04
350.2, 8.4932e-04
350.4, 7.8736e-04
350.6, 7.5525e-04
350.8, 6.6798e-04
351.0, 7.0117e-04
351.2, 5.4751e-04
351.4, 4.7169e-04
351.6, 4.0716e-04
351.8, 3.5371e-04
352.0, 1.688e-04
352.2, 1.2521e-04
352.4, 1.8127e-04
352.6, 8.9244e-05
352.8, 4.9737e-05
353.0, 4.9817e-05
353.2, 4.9695e-05
353.4, 4.9345e-05
353.6, 4.867e-05
353.8, 4.8033e-05
354.0, 4.7071e-05
354.2, 4.6185e-05
354.4, 4.5303e-05
354.6, 4.4478e-05
354.8, 4.3664e-05
355.0, 4.3072e-05
355.2, 4.2742e-05
355.4, 4.2353e-05
355.6, 4.2171e-05
355.8, 4.2181e-05
356.0, 1.7512e-04
356.2, 5.0465e-04
356.4, 0.00108
356.6, 0.00187
356.8, 0.00274
357.0, 0.0039
357.2, 0.00486
357.4, 0.00589
357.6, 0.00653
357.8, 0.00697
358.0, 0.00715
358.2, 0.00712
358.4, 0.00682
358.6, 0.00683
358.8, 0.00679
359.0, 0.00726
359.2, 0.00775
359.4, 0.00849
359.6, 0.00942
359.8, 0.01024
360.0, 0.01102
360.2, 0.01114
360.4, 0.01104
360.6, 0.01096
360.8, 0.01058
361.0, 0.00985
361.2, 0.0095
361.4, 0.00905
361.6, 0.00904
361.8, 0.00886
362.0, 0.00905
362.2, 0.00973
362.4, 0.01049
362.6, 0.01164
362.8, 0.01275
363.0, 0.01442
363.2, 0.01556
363.4, 0.01643
363.6, 0.01758
363.8, 0.01811
364.0, 0.01848
364.2, 0.01841
364.4, 0.0183
364.6, 0.0181
364.8, 0.0183
365.0, 0.01842
365.2, 0.01897
365.4, 0.01974
365.6, 0.02005
365.8, 0.02098
366.0, 0.02141
366.2, 0.02179
366.4, 0.02147
366.6, 0.02109
366.8, 0.02055
367.0, 0.01922
367.2, 0.01828
367.4, 0.01728
367.6, 0.01617
367.8, 0.01554
368.0, 0.01498
368.2, 0.01453
368.4, 0.01443
368.6, 0.01425
368.8, 0.0142
369.0, 0.01392
369.2, 0.01367
369.4, 0.01308
369.6, 0.01219
369.8, 0.0115
370.0, 0.01049
370.2, 0.00971
370.4, 0.0085
370.6, 0.00754
370.8, 0.0069
371.0, 0.00615
371.2, 0.00577
371.4, 0.00531
371.6, 0.00517
371.8, 0.00485
372.0, 0.00465
372.2, 0.00475
372.4, 0.00451
372.6, 0.00429
372.8, 0.00417
373.0, 0.004
373.2, 0.00373
373.4, 0.00344
373.6, 0.0031
373.8, 0.00278
374.0, 0.00243
374.2, 0.00235
374.4, 0.00205
374.6, 0.00207
374.8, 0.00189
375.0, 0.00186
375.2, 0.00175
375.4, 0.00176
375.6, 0.00181
375.8, 0.00186
376.0, 0.00202
376.2, 0.00199
376.4, 0.00229
376.6, 0.00244
376.8, 0.00254
377.0, 0.00277
377.2, 0.00269
377.4, 0.0028
377.6, 0.00274
377.8, 0.0028
378.0, 0.00262
378.2, 0.00248
378.4, 0.00231
378.6, 0.00205
378.8, 0.00177
379.0, 0.00177
379.2, 0.00152
379.4, 0.00141
379.6, 0.00142
379.8, 0.00137
380.0, 0.00137
380.2, 0.00147
380.4, 0.00156
380.6, 0.00149
380.8, 0.0017
381.0, 0.00204
381.2, 0.00228
381.4, 0.00248
381.6, 0.00291
381.8, 0.00319
382.0, 0.00355
382.2, 0.004
382.4, 0.00403
382.6, 0.00412
382.8, 0.00412
383.0, 0.00422
383.2, 0.00431
383.4, 0.00404
383.6, 0.00407
383.8, 0.004
384.0, 0.00392
384.2, 0.00403
384.4, 0.00416
384.6, 0.00436
384.8, 0.00467
385.0, 0.00526
385.2, 0.00571
385.4, 0.00648
385.6, 0.00716
385.8, 0.00813
386.0, 0.00897
386.2, 0.0096
386.4, 0.01023
386.6, 0.01062
386.8, 0.01063
387.0, 0.01047
387.2, 0.01041
387.4, 0.00989
387.6, 0.00934
387.8, 0.00891
388.0, 0.00855
388.2, 0.00827
388.4, 0.0083
388.6, 0.0082
388.8, 0.0085
389.0, 0.00886
389.2, 0.00947
389.4, 0.01009
389.6, 0.01077
389.8, 0.01135
390.0, 0.01178
390.2, 0.01192
390.4, 0.01163
390.6, 0.01142
390.8, 0.0106
391.0, 0.00974
391.2, 0.00896
391.4, 0.00797
391.6, 0.0071
391.8, 0.0062
392.0, 0.00653
392.2, 0.00619
392.4, 0.0057
392.6, 0.0053
392.8, 0.00519
393.0, 0.0049
393.2, 0.00483
393.4, 0.00494
393.6, 0.00488
393.8, 0.0048
394.0, 0.005
394.2, 0.005
394.4, 0.00518
394.6, 0.00524
394.8, 0.00525
395.0, 0.00534
395.2, 0.00494
395.4, 0.00505
395.6, 0.00494
395.8, 0.0047
396.0, 0.00443
396.2, 0.00401
396.4, 0.00389
396.6, 0.00367
396.8, 0.00352
397.0, 0.00354
397.2, 0.00323
397.4, 0.003
397.6, 0.00316
397.8, 0.003
398.0, 0.00305
398.2, 0.00309
398.4, 0.0032
398.6, 0.00317
398.8, 0.00325
399.0, 0.00329
399.2, 0.00321
399.4, 0.00327
399.6, 0.00354
399.8, 0.00354
400.0, 0.00347
400.2, 0.00346
400.4, 0.00362
400.6, 0.0036
400.8, 0.00381
401.0, 0.00387
401.2, 0.00377
401.4, 0.00393
401.6, 0.00403
401.8, 0.00406
402.0, 0.00409
402.2, 0.00414
402.4, 0.00444
402.6, 0.00464
402.8, 0.00469
403.0, 0.0051
403.2, 0.00547
403.4, 0.00587
403.6, 0.00625
403.8, 0.00721
404.0, 0.00796
404.2, 0.009
404.4, 0.01005
404.6, 0.01116
404.8, 0.01232
405.0, 0.01343
405.2, 0.01451
405.4, 0.01544
405.6, 0.01621
405.8, 0.01676
406.0, 0.01703
406.2, 0.01677
406.4, 0.01677
406.6, 0.01629
406.8, 0.01575
407.0, 0.01518
407.2, 0.01466
407.4, 0.01412
407.6, 0.0139
407.8, 0.0136
408.0, 0.01393
408.2, 0.01391
408.4, 0.01415
408.6, 0.01425
408.8, 0.01477
409.0, 0.01511
409.2, 0.01511
409.4, 0.01535
409.6, 0.01513
409.8, 0.01475
410.0, 0.01409
410.2, 0.01324
410.4, 0.01228
410.6, 0.01126
410.8, 0.01003
411.0, 0.00883
411.2, 0.00773
411.4, 0.00671
411.6, 0.00606
411.8, 0.00526
412.0, 0.00481
412.2, 0.00431
412.4, 0.00384
412.6, 0.00372
412.8, 0.00357
413.0, 0.00338
413.2, 0.00348
413.4, 0.0035
413.6, 0.00362
413.8, 0.00379
414.0, 0.00409
414.2, 0.00438
414.4, 0.00467
414.6, 0.00505
414.8, 0.00535
415.0, 0.00567
415.2, 0.00592
415.4, 0.00614
415.6, 0.00602
415.8, 0.00603
416.0, 0.00589
416.2, 0.00573
416.4, 0.00548
416.6, 0.00525
416.8, 0.00491
417.0, 0.00456
417.2, 0.00407
417.4, 0.00382
417.6, 0.00357
417.8, 0.0033
418.0, 0.00304
418.2, 0.00288
418.4, 0.00267
418.6, 0.00248
418.8, 0.0025
419.0, 0.00246
419.2, 0.00248
419.4, 0.00263
419.6, 0.00298
419.8, 0.00333
420.0, 0.00398
420.2, 0.00489
420.4, 0.00618
420.6, 0.0077
420.8, 0.00958
421.0, 0.01111
421.2, 0.01256
421.4, 0.01357
421.6, 0.0141
421.8, 0.01402
422.0, 0.01351
422.2, 0.01274
422.4, 0.01131
422.6, 0.00997
422.8, 0.00829
423.0, 0.00679
423.2, 0.00563
423.4, 0.00465
423.6, 0.00388
423.8, 0.00351
424.0, 0.00325
424.2, 0.00303
424.4, 0.00303
424.6, 0.00289
424.8, 0.00306
425.0, 0.00329
425.2, 0.00352
425.4, 0.00402
425.6, 0.00477
425.8, 0.00555
426.0, 0.00683
426.2, 0.00822
426.4, 0.00981
426.6, 0.01126
426.8, 0.01265
427.0, 0.01371
427.2, 0.0143
427.4, 0.0142
427.6, 0.01361
427.8, 0.01267
428.0, 0.01143
428.2, 0.01006
428.4, 0.00869
428.6, 0.00754
428.8, 0.00667
429.0, 0.00612
429.2, 0.00571
429.4, 0.00558
429.6, 0.00552
429.8, 0.00572
430.0, 0.00609
430.2, 0.00653
430.4, 0.00712
430.6, 0.00769
430.8, 0.00822
431.0, 0.00869
431.2, 0.00873
431.4, 0.00872
431.6, 0.00847
431.8, 0.00793
432.0, 0.00734
432.2, 0.00664
432.4, 0.00578
432.6, 0.00495
432.8, 0.00414
433.0, 0.00338
433.2, 0.00287
433.4, 0.00244
433.6, 0.00207
433.8, 0.00182
434.0, 0.00165
434.2, 0.00151
434.4, 0.00139
434.6, 0.00132
434.8, 0.00132
435.0, 0.00128
435.2, 0.00133
435.4, 0.00133
435.6, 0.00142
435.8, 0.00149
436.0, 0.00163
436.2, 0.00177
436.4, 0.00197
436.6, 0.0022
436.8, 0.0026
437.0, 0.00299
437.2, 0.00345
437.4, 0.00384
437.6, 0.00426
437.8, 0.00458
438.0, 0.00472
438.2, 0.00484
438.4, 0.00479
438.6, 0.00464
438.8, 0.0044
439.0, 0.00403
439.2, 0.00367
439.4, 0.0032
439.6, 0.00279
439.8, 0.00251
440.0, 0.00218
440.2, 0.00195
440.4, 0.00174
440.6, 0.00157
440.8, 0.00155
441.0, 0.00142
441.2, 0.00141
441.4, 0.00148
441.6, 0.00143
441.8, 0.00147
442.0, 0.00149
442.2, 0.00166
442.4, 0.00176
442.6, 0.00196
442.8, 0.00214
443.0, 0.00246
443.2, 0.00288
443.4, 0.00348
443.6, 0.00421
443.8, 0.00539
444.0, 0.00689
444.2, 0.00888
444.4, 0.01124
444.6, 0.01394
444.8, 0.0165
445.0, 0.01886
445.2, 0.02104
445.4, 0.02264
445.6, 0.02367
445.8, 0.02421
446.0, 0.02419
446.2, 0.02372
446.4, 0.02265
446.6, 0.02152
446.8, 0.02025
447.0, 0.01923
447.2, 0.01841
447.4, 0.01803
447.6, 0.01805
447.8, 0.01832
448.0, 0.01879
448.2, 0.01928
448.4, 0.01967
448.6, 0.02005
448.8, 0.0203
449.0, 0.02016
449.2, 0.01991
449.4, 0.01934
449.6, 0.01848
449.8, 0.01756
450.0, 0.01623
450.2, 0.01489
450.4, 0.01354
450.6, 0.01215
450.8, 0.01096
451.0, 0.00982
451.2, 0.00904
451.4, 0.00837
451.6, 0.00797
451.8, 0.00781
452.0, 0.00787
452.2, 0.00823
452.4, 0.00881
452.6, 0.00978
452.8, 0.01098
453.0, 0.01243
453.2, 0.01385
453.4, 0.01509
453.6, 0.01611
453.8, 0.01673
454.0, 0.01694
454.2, 0.01664
454.4, 0.01573
454.6, 0.01463
454.8, 0.013
455.0, 0.01131
455.2, 0.00926
455.4, 0.00745
455.6, 0.00579
455.8, 0.00451
456.0, 0.00355
456.2, 0.00287
456.4, 0.00234
456.6, 0.00198
456.8, 0.00173
457.0, 0.00149
457.2, 0.00136
457.4, 0.00122
457.6, 0.00113
457.8, 0.00106
458.0, 0.00106
458.2, 0.00103
458.4, 9.8499e-04
458.6, 0.00105
458.8, 0.00107
459.0, 0.00103
459.2, 0.00109
459.4, 0.00115
459.6, 0.00125
459.8, 0.00141
460.0, 0.0016
460.2, 0.00189
460.4, 0.0023
460.6, 0.00281
460.8, 0.00344
461.0, 0.00417
461.2, 0.00494
461.4, 0.00583
461.6, 0.0067
461.8, 0.00745
462.0, 0.00832
462.2, 0.00896
462.4, 0.0096
462.6, 0.00987
462.8, 0.00979
463.0, 0.00949
463.2, 0.00889
463.4, 0.00797
463.6, 0.00686
463.8, 0.00549
464.0, 0.00418
464.2, 0.00309
464.4, 0.0024
464.6, 0.00196
464.8, 0.00168
465.0, 0.00148
465.2, 0.00136
465.4, 0.00129
465.6, 0.00125
465.8, 0.00119
466.0, 0.00113
466.2, 0.00113
466.4, 0.00117
466.6, 0.00117
466.8, 0.0012
467.0, 0.00127
467.2, 0.00136
467.4, 0.00143
467.6, 0.00161
467.8, 0.00177
468.0, 0.00216
468.2, 0.00273
468.4, 0.00322
468.6, 0.00369
468.8, 0.00469
469.0, 0.00596
469.2, 0.00768
469.4, 0.00986
469.6, 0.01268
469.8, 0.01602
470.0, 0.01964
470.2, 0.02335
470.4, 0.02665
470.6, 0.02936
470.8, 0.03157
471.0, 0.03308
471.2, 0.03385
471.4, 0.0339
471.6, 0.03316
471.8, 0.03153
472.0, 0.02985
472.2, 0.02756
472.4, 0.0257
472.6, 0.02391
472.8, 0.0223
473.0, 0.02123
473.2, 0.02037
473.4, 0.02
473.6, 0.01973
473.8, 0.01927
474.0, 0.01883
474.2, 0.01829
474.4, 0.01764
474.6, 0.01699
474.8, 0.01617
475.0, 0.01531
475.2, 0.01416
475.4, 0.01314
475.6, 0.01195
475.8, 0.01099
476.0, 0.00995
476.2, 0.00898
476.4, 0.00818
476.6, 0.00757
476.8, 0.00701
477.0, 0.00666
477.2, 0.00635
477.4, 0.00595
477.6, 0.00598
477.8, 0.00604
478.0, 0.00632
478.2, 0.00664
478.4, 0.00707
478.6, 0.00759
478.8, 0.00835
479.0, 0.00929
479.2, 0.01025
479.4, 0.01122
479.6, 0.01197
479.8, 0.01266
480.0, 0.01313
480.2, 0.01332
480.4, 0.01314
480.6, 0.01268
480.8, 0.01194
481.0, 0.01095
481.2, 0.00998
481.4, 0.0088
481.6, 0.00769
481.8, 0.00655
482.0, 0.00551
482.2, 0.00482
482.4, 0.00432
482.6, 0.00402
482.8, 0.0037
483.0, 0.00358
483.2, 0.00338
483.4, 0.00337
483.6, 0.0032
483.8, 0.00296
484.0, 0.00273
484.2, 0.00237
484.4, 0.00217
484.6, 0.00197
484.8, 0.0017
485.0, 0.00146
485.2, 0.00128
485.4, 0.00121
485.6, 0.00122
485.8, 0.00123
486.0, 0.00117
486.2, 0.00119
486.4, 0.00117
486.6, 0.00135
486.8, 0.00148
487.0, 0.00153
487.2, 0.00169
487.4, 0.00184
487.6, 0.00207
487.8, 0.00234
488.0, 0.00261
488.2, 0.00285
488.4, 0.00317
488.6, 0.00339
488.8, 0.0036
489.0, 0.00396
489.2, 0.00415
489.4, 0.0043
489.6, 0.00422
489.8, 0.00419
490.0, 0.00408
490.2, 0.00397
490.4, 0.00375
490.6, 0.00343
490.8, 0.00309
491.0, 0.00274
491.2, 0.00251
491.4, 0.00222
491.6, 0.00191
491.8, 0.00163
492.0, 0.00142
492.2, 0.00131
492.4, 0.00117
492.6, 0.00113
492.8, 0.00101
493.0, 8.8813e-04
493.2, 8.5829e-04
493.4, 8.2435e-04
493.6, 8.3532e-04
493.8, 7.6785e-04
494.0, 7.5794e-04
494.2, 6.8201e-04
494.4, 7.2295e-04
494.6, 7.687e-04
494.8, 7.7159e-04
495.0, 7.6295e-04
495.2, 7.3351e-04
495.4, 8.0143e-04
495.6, 8.3813e-04
495.8, 8.9316e-04
496.0, 0.001
496.2, 9.6358e-04
496.4, 0.00106
496.6, 0.00118
496.8, 0.00136
497.0, 0.00147
497.2, 0.00165
497.4, 0.00184
497.6, 0.00209
497.8, 0.00238
498.0, 0.00279
498.2, 0.00326
498.4, 0.00365
498.6, 0.00412
498.8, 0.00454
499.0, 0.00508
499.2, 0.00552
499.4, 0.00589
499.6, 0.00609
499.8, 0.00618
500.0, 0.00626
500.2, 0.00634
500.4, 0.00609
500.6, 0.00577
500.8, 0.0055
501.0, 0.00511
501.2, 0.00463
501.4, 0.00431
501.6, 0.00394
501.8, 0.00353
502.0, 0.00326
502.2, 0.00302
502.4, 0.00279
502.6, 0.00258
502.8, 0.00251
503.0, 0.00239
503.2, 0.00228
503.4, 0.00229
503.6, 0.00228
503.8, 0.00224
504.0, 0.00222
504.2, 0.00229
504.4, 0.00233
504.6, 0.00235
504.8, 0.00248
505.0, 0.00258
505.2, 0.00264
505.4, 0.0028
505.6, 0.00302
505.8, 0.00324
506.0, 0.00344
506.2, 0.00381
506.4, 0.00415
506.6, 0.00452
506.8, 0.00506
507.0, 0.00572
507.2, 0.00639
507.4, 0.00718
507.6, 0.00823
507.8, 0.00938
508.0, 0.01071
508.2, 0.01226
508.4, 0.01403
508.6, 0.01594
508.8, 0.0181
509.0, 0.02039
509.2, 0.02271
509.4, 0.02502
509.6, 0.02737
509.8, 0.02943
510.0, 0.03118
510.2, 0.0328
510.4, 0.03386
510.6, 0.03467
510.8, 0.03508
511.0, 0.03505
511.2, 0.03476
511.4, 0.03412
511.6, 0.03311
511.8, 0.0321
512.0, 0.03103
512.2, 0.02989
512.4, 0.0286
512.6, 0.02735
512.8, 0.02624
513.0, 0.02527
513.2, 0.02417
513.4, 0.02315
513.6, 0.02236
513.8, 0.02162
514.0, 0.02081
514.2, 0.02007
514.4, 0.01956
514.6, 0.01896
514.8, 0.01845
515.0, 0.01798
515.2, 0.01755
515.4, 0.01718
515.6, 0.0168
515.8, 0.01656
516.0, 0.01637
516.2, 0.01621
516.4, 0.01628
516.6, 0.01619
516.8, 0.01615
517.0, 0.01619
517.2, 0.0163
517.4, 0.01653
517.6, 0.01669
517.8, 0.0171
518.0, 0.01747
518.2, 0.01785
518.4, 0.01849
518.6, 0.01907
518.8, 0.01976
519.0, 0.02048
519.2, 0.02145
519.4, 0.02237
519.6, 0.02341
519.8, 0.02448
520.0, 0.02553
520.2, 0.02655
520.4, 0.02739
520.6, 0.02809
520.8, 0.02857
521.0, 0.02889
521.2, 0.02903
521.4, 0.02873
521.6, 0.02817
521.8, 0.02736
522.0, 0.02633
522.2, 0.02499
522.4, 0.02358
522.6, 0.02206
522.8, 0.02046
523.0, 0.01887
523.2, 0.01746
523.4, 0.01605
523.6, 0.01481
523.8, 0.01384
524.0, 0.01304
524.2, 0.01247
524.4, 0.0123
524.6, 0.01228
524.8, 0.01239
525.0, 0.01246
525.2, 0.01254
525.4, 0.01243
525.6, 0.01233
525.8, 0.01211
526.0, 0.01188
526.2, 0.01148
526.4, 0.01105
526.6, 0.01053
526.8, 0.00987
527.0, 0.00911
527.2, 0.00834
527.4, 0.00762
527.6, 0.00684
527.8, 0.00617
528.0, 0.00575
528.2, 0.00542
528.4, 0.00532
528.6, 0.00539
528.8, 0.00555
529.0, 0.00574
529.2, 0.00615
529.4, 0.00667
529.6, 0.00729
529.8, 0.00807
530.0, 0.00913
530.2, 0.01037
530.4, 0.01182
530.6, 0.01352
530.8, 0.01536
531.0, 0.01712
531.2, 0.01859
531.4, 0.01984
531.6, 0.02062
531.8, 0.02096
532.0, 0.02092
532.2, 0.02061
532.4, 0.01966
532.6, 0.0185
532.8, 0.01698
533.0, 0.0152
533.2, 0.01322
533.4, 0.01129
533.6, 0.00935
533.8, 0.00761
534.0, 0.00618
534.2, 0.00502
534.4, 0.00408
534.6, 0.00337
534.8, 0.00285
535.0, 0.00244
535.2, 0.00206
535.4, 0.00183
535.6, 0.00163
535.8, 0.00145
536.0, 0.00131
536.2, 0.00121
536.4, 0.00109
536.6, 0.00102
536.8, 9.578e-04
537.0, 8.5006e-04
537.2, 8.1053e-04
537.4, 7.7468e-04
537.6, 7.3905e-04
537.8, 7.1267e-04
538.0, 6.6646e-04
538.2, 6.7092e-04
538.4, 6.3723e-04
538.6, 5.9243e-04
538.8, 6.0468e-04
539.0, 6.1877e-04
539.2, 5.7647e-04
539.4, 5.9782e-04
539.6, 5.9856e-04
539.8, 5.5429e-04
540.0, 5.4857e-04
540.2, 5.9144e-04
540.4, 5.511e-04
540.6, 5.4249e-04
540.8, 5.8067e-04
541.0, 5.6636e-04
541.2, 5.436e-04
541.4, 5.6785e-04
541.6, 5.8429e-04
541.8, 5.6759e-04
542.0, 5.8406e-04
542.2, 6.2219e-04
542.4, 6.2201e-04
542.6, 6.1536e-04
542.8, 6.3989e-04
543.0, 0.0022
543.2, 0.00314
543.4, 0.00316
543.6, 0.00322
543.8, 0.00318
544.0, 0.00322
544.2, 0.00327
544.4, 0.00328
544.6, 0.00333
544.8, 0.00342
545.0, 0.00344
545.2, 0.00349
545.4, 0.00361
545.6, 0.00372
545.8, 0.00381
546.0, 0.0039
546.2, 0.00406
546.4, 0.00423
546.6, 0.00429
546.8, 0.00438
547.0, 0.00448
547.2, 0.00458
547.4, 0.0046
547.6, 0.00471
547.8, 0.00472
548.0, 0.00473
548.2, 0.00474
548.4, 0.00471
548.6, 0.00466
548.8, 0.00463
549.0, 0.00452
549.2, 0.00441
549.4, 0.00432
549.6, 0.00422
549.8, 0.00408
550.0, 0.00397
550.2, 0.00385
550.4, 0.00373
550.6, 0.00363
550.8, 0.00356
551.0, 0.00346
551.2, 0.00338
551.4, 0.00333
551.6, 0.00329
551.8, 0.00323
552.0, 0.00318
552.2, 0.00315
552.4, 0.00309
552.6, 0.00308
552.8, 0.00306
553.0, 0.00308
553.2, 0.00301
553.4, 0.003
553.6, 0.00304
553.8, 0.003
554.0, 0.00296
554.2, 0.00298
554.4, 0.00297
554.6, 0.00296
554.8, 0.00293
555.0, 0.00299
555.2, 0.00295
555.4, 0.00293
555.6, 0.00294
555.8, 0.00294
556.0, 0.00295
556.2, 0.00296
556.4, 0.00297
556.6, 0.00295
556.8, 0.00297
557.0, 0.00301
557.2, 0.00303
557.4, 0.00299
557.6, 0.00304
557.8, 0.00305
558.0, 0.00306
558.2, 0.00306
558.4, 0.00314
558.6, 0.00314
558.8, 0.00317
559.0, 0.00321
559.2, 0.00324
559.4, 0.0033
559.6, 0.0033
559.8, 0.00338
560.0, 0.00341
560.2, 0.00343
560.4, 0.00354
560.6, 0.0036
560.8, 0.00367
561.0, 0.00373
561.2, 0.00385
561.4, 0.00392
561.6, 0.00399
561.8, 0.00415
562.0, 0.00425
562.2, 0.00436
562.4, 0.00453
562.6, 0.00471
562.8, 0.00488
563.0, 0.00511
563.2, 0.00539
563.4, 0.00564
563.6, 0.00595
563.8, 0.00628
564.0, 0.00669
564.2, 0.00715
564.4, 0.00768
564.6, 0.0083
564.8, 0.00894
565.0, 0.0097
565.2, 0.01059
565.4, 0.01163
565.6, 0.01279
565.8, 0.01413
566.0, 0.01564
566.2, 0.01735
566.4, 0.0194
566.6, 0.02162
566.8, 0.02412
567.0, 0.02715
567.2, 0.03052
567.4, 0.0343
567.6, 0.03856
567.8, 0.04343
568.0, 0.04861
568.2, 0.05448
568.4, 0.06113
568.6, 0.06816
568.8, 0.07613
569.0, 0.08451
569.2, 0.09321
569.4, 0.10285
569.6, 0.11324
569.8, 0.12409
570.0, 0.13564
570.2, 0.1471
570.4, 0.1591
570.6, 0.17158
570.8, 0.18467
571.0, 0.19805
571.2, 0.21102
571.4, 0.22413
571.6, 0.23794
571.8, 0.25209
572.0, 0.26609
572.2, 0.28039
572.4, 0.29411
572.6, 0.30806
572.8, 0.32176
573.0, 0.33451
573.2, 0.34739
573.4, 0.36094
573.6, 0.37423
573.8, 0.38639
574.0, 0.39724
574.2, 0.40727
574.4, 0.41721
574.6, 0.42676
574.8, 0.43537
575.0, 0.44343
575.2, 0.45158
575.4, 0.45788
575.6, 0.46374
575.8, 0.46748
576.0, 0.47143
576.2, 0.47526
576.4, 0.47831
576.6, 0.48015
576.8, 0.48512
577.0, 0.49065
577.2, 0.49491
577.4, 0.50065
577.6, 0.50684
577.8, 0.51708
578.0, 0.53038
578.2, 0.54665
578.4, 0.56395
578.6, 0.58397
578.8, 0.60868
579.0, 0.63705
579.2, 0.66793
579.4, 0.69729
579.6, 0.72925
579.8, 0.76341
580.0, 0.79456
580.2, 0.82335
580.4, 0.85202
580.6, 0.8763
580.8, 0.8983
581.0, 0.9168
581.2, 0.9316
581.4, 0.94281
581.6, 0.95286
581.8, 0.95839
582.0, 0.96154
582.2, 0.96318
582.4, 0.96333
582.6, 0.96422
582.8, 0.96448
583.0, 0.96371
583.2, 0.96333
583.4, 0.96541
583.6, 0.96775
583.8, 0.96747
584.0, 0.96572
584.2, 0.96659
584.4, 0.96961
584.6, 0.9716
584.8, 0.975
585.0, 0.97678
585.2, 0.97674
585.4, 0.97736
585.6, 0.97645
585.8, 0.97695
586.0, 0.97882
586.2, 0.97738
586.4, 0.97729
586.6, 0.97764
586.8, 0.97885
587.0, 0.97879
587.2, 0.97633
587.4, 0.97653
587.6, 0.97513
587.8, 0.97598
588.0, 0.97458
588.2, 0.97488
588.4, 0.97237
588.6, 0.97142
588.8, 0.97059
589.0, 0.96856
589.2, 0.96767
589.4, 0.96692
589.6, 0.96687
589.8, 0.96577
590.0, 0.96597
590.2, 0.966
590.4, 0.96535
590.6, 0.96576
590.8, 0.96463
591.0, 0.9621
591.2, 0.96094
591.4, 0.96029
591.6, 0.95895
591.8, 0.95649
592.0, 0.95738
592.2, 0.9584
592.4, 0.9581
592.6, 0.95803
592.8, 0.95898
593.0, 0.95948
593.2, 0.95988
593.4, 0.95952
593.6, 0.96019
593.8, 0.96173
594.0, 0.96141
594.2, 0.96031
594.4, 0.95849
594.6, 0.95959
594.8, 0.96075
595.0, 0.95963
595.2, 0.95895
595.4, 0.95975
595.6, 0.95943
595.8, 0.95947
596.0, 0.96005
596.2, 0.96211
596.4, 0.96092
596.6, 0.96031
596.8, 0.95976
597.0, 0.95974
597.2, 0.95896
597.4, 0.95831
597.6, 0.95931
597.8, 0.95871
598.0, 0.95692
598.2, 0.95623
598.4, 0.95445
598.6, 0.95472
598.8, 0.95692
599.0, 0.95534
